#     unbeamed line spectrum in Fig4 of Tavecchio & ghisellini 2008,
#     sent by Tavecchio.
      7.53577         -100
      7.57933         -100
      7.62265         -100
      7.66604         -100
      7.70965         -100
      7.75305         -100
      7.79637         -100
      7.83988         -100
      7.88334         -100
      7.92671         -100
      7.97012         -100
      8.01357         -100
      8.05707         -100
      8.10045         -100
      8.14387         -100
      8.18732         -100
      8.23075         -100
      8.27417         -100
      8.31762         -100
      8.36108         -100
      8.40445         -100
      8.44790         -100
      8.49134         -100
      8.53494         -100
      8.57821         -100
      8.62164         -100
      8.66512         -100
      8.70854         -100
      8.75180         -100
      8.79524         -100
      8.83885         -100
      8.88222         -100
      8.92571         -100
      8.96905     -42.4595
      9.01247     -42.2208
      9.05595     -25.1413
      9.09932     -25.0123
      9.14275     -24.8927
      9.18622     -24.7834
      9.22959     -24.6849
      9.27304     -24.5679
      9.31646     -24.4668
      9.35990     -24.3675
      9.40333     -24.2702
      9.44678     -24.1768
      9.49019     -24.0890
      9.53370     -23.9919
      9.57708     -23.9020
      9.62062     -23.8115
      9.66389     -23.7206
      9.70743     -23.6312
      9.75079     -23.5448
      9.79410     -23.4631
      9.83762     -23.3220
      9.88111     -23.2327
      9.92453     -23.1500
      9.96799     -23.0203
      10.0114     -22.9384
      10.0548     -22.8645
      10.0982     -22.7415
      10.1416     -22.6709
      10.1850     -22.5559
      10.2285     -22.4897
      10.2719     -22.3797
      10.3154     -22.2750
      10.3588     -22.2109
      10.4022     -22.1080
      10.4456     -22.0082
      10.4890     -21.9108
      10.5325     -21.8479
      10.5760     -21.7503
      10.6193     -21.6545
      10.6627     -21.5595
      10.7063     -21.4984
      10.7495     -21.4028
      10.7930     -21.3084
      10.8159     -21.2771
      10.8180     -21.2741
      10.8202     -21.2712
      10.8223     -21.2684
      10.8247     -21.2657
      10.8268     -21.2628
      10.8289     -21.2258
      10.8310     -21.2226
      10.8333     -21.2195
      10.8353     -21.2162
      10.8376     -21.2132
      10.8397     -21.2099
      10.8419     -21.2069
      10.8442     -21.2039
      10.8462     -21.2006
      10.8484     -21.1976
      10.8506     -21.1946
      10.8528     -21.1916
      10.8550     -21.1885
      10.8572     -21.1855
      10.8593     -21.1825
      10.8615     -21.1795
      10.8636     -21.1766
      10.8657     -21.1737
      10.8681     -21.1706
      10.8702     -21.1679
      10.8723     -21.1647
      10.8745     -21.1622
      10.8766     -21.1592
      10.8789     -21.1564
      10.8809     -21.1534
      10.8832     -21.1507
      10.8854     -21.1136
      10.8876     -21.1107
      10.8896     -21.1072
      10.8918     -21.1041
      10.8940     -21.1010
      10.8961     -21.0979
      10.8983     -21.0946
      10.9006     -21.0918
      10.9027     -21.0886
      10.9049     -21.0857
      10.9070     -21.0826
      10.9093     -21.0797
      10.9113     -21.0764
      10.9136     -21.0736
      10.9157     -21.0704
      10.9179     -21.0677
      10.9201     -21.0648
      10.9223     -21.0619
      10.9244     -21.0589
      10.9265     -21.0558
      10.9287     -21.0530
      10.9309     -21.0501
      10.9330     -21.0474
      10.9354     -21.0447
      10.9375     -21.0416
      10.9396     -21.0235
      10.9417     -21.0207
      10.9440     -21.0178
      10.9461     -21.0149
      10.9483     -21.0121
      10.9505     -21.0092
      10.9526     -21.0064
      10.9548     -21.0035
      10.9570     -21.0007
      10.9592     -20.9826
      10.9614     -20.9796
      10.9635     -20.9767
      10.9657     -20.9739
      10.9678     -20.9710
      10.9700     -20.9681
      10.9722     -20.9653
      10.9743     -20.9624
      10.9766     -20.9597
      10.9787     -20.9417
      10.9809     -20.9389
      10.9830     -20.9358
      10.9852     -20.9329
      10.9874     -20.9300
      10.9896     -20.9272
      10.9917     -20.9243
      10.9939     -20.9216
      10.9961     -20.9188
      10.9982     -20.9009
      11.0005     -20.8980
      11.0026     -20.8951
      11.0047     -20.8922
      11.0069     -20.8892
      11.0092     -20.8865
      11.0112     -20.8835
      11.0134     -20.8807
      11.0156     -20.8780
      11.0178     -20.8601
      11.0200     -20.8572
      11.0221     -20.8544
      11.0243     -20.8514
      11.0264     -20.8485
      11.0286     -20.8457
      11.0308     -20.8430
      11.0329     -20.8401
      11.0351     -20.8374
      11.0374     -20.8196
      11.0394     -20.8165
      11.0416     -20.8137
      11.0438     -20.8109
      11.0460     -20.8079
      11.0482     -20.8052
      11.0503     -20.8023
      11.0524     -20.7994
      11.0547     -20.7968
      11.0568     -20.7790
      11.0591     -20.7762
      11.0612     -20.7732
      11.0634     -20.7704
      11.0656     -20.7675
      11.0678     -20.7647
      11.0699     -20.7619
      11.0721     -20.7591
      11.0743     -20.7563
      11.0764     -20.7386
      11.0785     -20.7356
      11.0808     -20.7329
      11.0829     -20.7299
      11.0851     -20.7272
      11.0872     -20.7243
      11.0894     -20.7215
      11.0916     -20.7187
      11.0938     -20.7159
      11.0959     -20.6983
      11.0981     -20.6954
      11.1002     -20.6925
      11.1025     -20.6897
      11.1046     -20.6869
      11.1068     -20.6841
      11.1089     -20.6812
      11.1111     -20.6784
      11.1133     -20.6757
      11.1155     -20.6581
      11.1177     -20.6553
      11.1198     -20.6524
      11.1220     -20.6495
      11.1242     -20.6467
      11.1263     -20.6439
      11.1285     -20.6411
      11.1306     -20.6383
      11.1328     -20.6356
      11.1350     -20.6180
      11.1372     -20.6151
      11.1394     -20.6123
      11.1415     -20.6094
      11.1437     -20.6066
      11.1459     -20.6039
      11.1480     -20.6010
      11.1502     -20.5983
      11.1523     -20.5954
      11.1545     -20.5927
      11.1567     -20.5751
      11.1589     -20.5723
      11.1610     -20.5694
      11.1633     -20.5667
      11.1654     -20.5638
      11.1675     -20.5610
      11.1698     -20.5583
      11.1720     -20.5556
      11.1740     -20.5528
      11.1762     -20.5352
      11.1784     -20.5324
      11.1806     -20.5296
      11.1828     -20.5268
      11.1849     -20.5240
      11.1871     -20.5212
      11.1893     -20.5184
      11.1914     -20.5159
      11.1936     -20.5129
      11.1958     -20.4955
      11.1980     -20.4924
      11.2001     -20.4898
      11.2023     -20.4869
      11.2045     -20.4843
      11.2067     -20.4815
      11.2088     -20.4786
      11.2110     -20.4759
      11.2132     -20.4732
      11.2153     -20.4558
      11.2175     -20.4527
      11.2197     -20.4500
      11.2218     -20.4473
      11.2240     -20.4444
      11.2262     -20.4415
      11.2283     -20.4390
      11.2305     -20.4362
      11.2327     -20.4335
      11.2349     -20.4161
      11.2370     -20.4130
      11.2393     -20.4103
      11.2414     -20.4076
      11.2436     -20.4047
      11.2457     -20.4019
      11.2479     -20.3991
      11.2501     -20.3964
      11.2522     -20.3937
      11.2544     -20.3763
      11.2566     -20.3733
      11.2587     -20.3707
      11.2609     -20.3679
      11.2631     -20.3652
      11.2653     -20.3622
      11.2674     -20.3595
      11.2696     -20.3570
      11.2718     -20.3541
      11.2739     -20.3366
      11.2761     -20.3338
      11.2783     -20.3311
      11.2805     -20.3282
      11.2826     -20.3254
      11.2848     -20.3227
      11.2870     -20.3199
      11.2891     -20.3173
      11.2913     -20.3145
      11.2935     -20.2971
      11.2956     -20.2944
      11.2979     -20.2915
      11.3000     -20.2887
      11.3022     -20.2859
      11.3044     -20.2832
      11.3065     -20.2805
      11.3087     -20.2777
      11.3109     -20.2750
      11.3130     -20.2576
      11.3152     -20.2548
      11.3174     -20.2521
      11.3195     -20.2491
      11.3217     -20.2465
      11.3239     -20.2437
      11.3261     -20.2410
      11.3283     -20.2382
      11.3304     -20.2355
      11.3326     -20.2180
      11.3347     -20.2153
      11.3369     -20.2124
      11.3391     -20.2097
      11.3412     -20.2069
      11.3434     -20.2042
      11.3456     -20.2015
      11.3478     -20.1987
      11.3499     -20.1961
      11.3521     -20.1785
      11.3543     -20.1758
      11.3565     -20.1730
      11.3586     -20.1702
      11.3608     -20.1675
      11.3630     -20.1647
      11.3651     -20.1619
      11.3673     -20.1593
      11.3695     -20.1566
      11.3717     -20.1392
      11.3738     -20.1364
      11.3760     -20.1335
      11.3781     -20.1307
      11.3803     -20.1280
      11.3825     -20.1253
      11.3847     -20.1225
      11.3868     -20.1198
      11.3890     -20.1172
      11.3912     -20.0997
      11.3934     -20.0969
      11.3955     -20.0941
      11.3977     -20.0913
      11.3999     -20.0886
      11.4020     -20.0858
      11.4042     -20.0831
      11.4064     -20.0804
      11.4086     -20.0777
      11.4107     -20.0603
      11.4129     -20.0575
      11.4151     -20.0547
      11.4173     -20.0520
      11.4194     -20.0492
      11.4216     -20.0464
      11.4238     -20.0437
      11.4259     -20.0410
      11.4281     -20.0383
      11.4303     -20.0208
      11.4325     -20.0180
      11.4346     -20.0152
      11.4368     -20.0125
      11.4390     -20.0097
      11.4411     -20.0069
      11.4433     -20.0043
      11.4455     -20.0016
      11.4476     -19.9988
      11.4498     -19.9962
      11.4520     -19.9785
      11.4542     -19.9758
      11.4563     -19.9730
      11.4585     -19.9703
      11.4607     -19.9675
      11.4628     -19.9648
      11.4650     -19.9620
      11.4672     -19.9594
      11.4693     -19.9567
      11.4715     -19.9391
      11.4737     -19.9363
      11.4759     -19.9336
      11.4781     -19.9308
      11.4802     -19.9281
      11.4824     -19.9253
      11.4846     -19.9226
      11.4867     -19.9199
      11.4889     -19.9173
      11.4911     -19.8996
      11.4933     -19.8968
      11.4954     -19.8940
      11.4976     -19.8913
      11.4998     -19.8885
      11.5019     -19.8858
      11.5041     -19.8831
      11.5063     -19.8804
      11.5084     -19.8777
      11.5106     -19.8601
      11.5128     -19.8573
      11.5151     -19.8546
      11.5172     -19.8518
      11.5194     -19.8490
      11.5215     -19.8464
      11.5236     -19.8434
      11.5257     -19.8408
      11.5279     -19.8379
      11.5299     -19.8204
      11.5325     -19.8178
      11.5345     -19.8148
      11.5366     -19.8122
      11.5386     -19.8093
      11.5411     -19.8068
      11.5431     -19.8040
      11.5452     -19.8012
      11.5476     -19.7985
      11.5496     -19.7809
      11.5520     -19.7781
      11.5540     -19.7753
      11.5563     -19.7726
      11.5583     -19.7696
      11.5606     -19.7673
      11.5626     -19.7644
      11.5649     -19.7618
      11.5672     -19.7590
      11.5691     -19.7411
      11.5714     -19.7386
      11.5737     -19.7358
      11.5756     -19.7326
      11.5778     -19.7299
      11.5801     -19.7273
      11.5823     -19.7247
      11.5845     -19.7221
      11.5867     -19.7196
      11.5889     -19.7165
      11.5908     -19.6985
      11.5929     -19.6958
      11.5951     -19.6931
      11.5976     -19.6905
      11.5998     -19.6879
      11.6019     -19.6850
      11.6040     -19.6822
      11.6061     -19.6795
      11.6082     -19.6768
      11.6103     -19.6588
      11.6127     -19.6562
      11.6148     -19.6533
      11.6169     -19.6505
      11.6193     -19.6479
      11.6213     -19.6451
      11.6237     -19.6426
      11.6257     -19.6397
      11.6277     -19.6369
      11.6300     -19.6191
      11.6323     -19.6164
      11.6343     -19.6133
      11.6366     -19.6108
      11.6386     -19.6078
      11.6409     -19.6051
      11.6431     -19.6025
      11.6454     -19.6000
      11.6473     -19.5970
      11.6495     -19.5791
      11.6517     -19.5763
      11.6539     -19.5736
      11.6561     -19.5707
      11.6583     -19.5681
      11.6605     -19.5653
      11.6627     -19.5626
      11.6648     -19.5599
      11.6670     -19.5571
      11.6691     -19.5391
      11.6712     -19.5361
      11.6733     -19.5333
      11.6757     -19.5307
      11.6778     -19.5279
      11.6799     -19.5251
      11.6822     -19.5226
      11.6843     -19.5197
      11.6864     -19.5169
      11.6887     -19.5144
      11.6907     -19.4960
      11.6930     -19.4933
      11.6950     -19.4903
      11.6973     -19.4878
      11.6996     -19.4850
      11.7016     -19.4822
      11.7038     -19.4795
      11.7060     -19.4769
      11.7083     -19.4742
      11.7105     -19.4559
      11.7124     -19.4528
      11.7146     -19.4501
      11.7168     -19.4473
      11.7190     -19.4446
      11.7211     -19.4418
      11.7233     -19.4390
      11.7257     -19.4366
      11.7278     -19.4339
      11.7299     -19.4155
      11.7320     -19.4125
      11.7341     -19.4097
      11.7365     -19.4070
      11.7385     -19.4043
      11.7406     -19.4013
      11.7429     -19.3987
      11.7450     -19.3959
      11.7473     -19.3934
      11.7495     -19.3908
      11.7515     -19.3720
      11.7538     -19.3692
      11.7560     -19.3665
      11.7580     -19.3635
      11.7602     -19.3609
      11.7625     -19.3581
      11.7647     -19.3554
      11.7668     -19.3528
      11.7690     -19.3501
      11.7712     -19.3313
      11.7733     -19.3286
      11.7755     -19.3257
      11.7776     -19.3228
      11.7797     -19.3200
      11.7821     -19.3175
      11.7842     -19.3147
      11.7863     -19.3119
      11.7886     -19.3093
      11.7907     -19.3065
      11.7927     -19.2875
      11.7950     -19.2848
      11.7973     -19.2821
      11.7993     -19.2792
      11.8016     -19.2765
      11.8038     -19.2738
      11.8058     -19.2709
      11.8080     -19.2683
      11.8102     -19.2655
      11.8124     -19.2465
      11.8146     -19.2437
      11.8167     -19.2409
      11.8189     -19.2381
      11.8210     -19.2353
      11.8232     -19.2325
      11.8255     -19.2300
      11.8276     -19.2271
      11.8297     -19.2244
      11.8320     -19.2083
      11.8341     -19.2054
      11.8362     -19.2025
      11.8384     -19.1998
      11.8407     -19.1971
      11.8427     -19.1942
      11.8450     -19.1916
      11.8472     -19.1890
      11.8492     -19.1779
      11.8514     -19.1754
      11.8536     -19.1725
      11.8558     -19.1696
      11.8579     -19.1610
      11.8601     -19.1582
      11.8622     -19.1555
      11.8646     -19.1527
      11.8667     -19.1423
      11.8688     -19.1394
      11.8709     -19.1366
      11.8732     -19.1340
      11.8753     -19.1215
      11.8776     -19.1187
      11.8796     -19.1158
      11.8819     -19.1132
      11.8841     -19.1106
      11.8861     -19.1011
      11.8883     -19.0983
      11.8905     -19.0955
      11.8927     -19.0928
      11.8949     -19.0851
      11.8970     -19.0825
      11.8992     -19.0751
      11.9013     -19.0724
      11.9036     -19.0699
      11.9057     -19.0613
      11.9079     -19.0585
      11.9101     -19.0508
      11.9122     -19.0478
      11.9145     -19.0454
      11.9165     -19.0381
      11.9188     -19.0355
      11.9210     -19.0293
      11.9232     -19.0265
      11.9252     -19.0191
      11.9274     -19.0165
      11.9296     -19.0097
      11.9317     -19.0070
      11.9340     -19.0014
      11.9362     -18.9986
      11.9383     -18.9932
      11.9404     -18.9877
      11.9427     -18.9826
      11.9448     -18.9798
      11.9470     -18.9748
      11.9491     -18.9697
      11.9513     -18.9650
      11.9536     -18.9605
      11.9556     -18.9557
      11.9578     -18.9496
      11.9600     -18.9453
      11.9621     -18.9412
      11.9643     -18.9356
      11.9665     -18.9315
      11.9687     -18.9263
      11.9709     -18.9213
      11.9730     -18.9171
      11.9752     -18.9122
      11.9773     -18.9073
      11.9796     -18.9025
      11.9817     -18.8976
      11.9839     -18.8930
      11.9861     -18.8883
      11.9883     -18.8827
      11.9904     -18.8782
      11.9926     -18.8737
      11.9948     -18.8692
      11.9969     -18.8645
      11.9990     -18.8587
      12.0013     -18.8550
      12.0034     -18.8500
      12.0057     -18.8452
      12.0078     -18.8410
      12.0100     -18.8370
      12.0121     -18.8314
      12.0143     -18.8271
      12.0164     -18.8231
      12.0186     -18.8185
      12.0208     -18.8140
      12.0230     -18.8095
      12.0251     -18.8045
      12.0274     -18.7991
      12.0295     -18.7963
      12.0316     -18.7915
      12.0338     -18.7872
      12.0361     -18.7824
      12.0381     -18.7796
      12.0403     -18.7741
      12.0425     -18.7714
      12.0447     -18.7652
      12.0469     -18.7625
      12.0490     -18.7567
      12.0512     -18.7541
      12.0533     -18.7484
      12.0556     -18.7458
      12.0577     -18.7393
      12.0599     -18.7366
      12.0620     -18.7291
      12.0642     -18.7265
      12.0664     -18.7239
      12.0686     -18.7213
      12.0708     -18.7140
      12.0729     -18.7113
      12.0751     -18.7087
      12.0772     -18.7001
      12.0795     -18.6975
      12.0816     -18.6948
      12.0837     -18.6921
      12.0859     -18.6822
      12.0881     -18.6796
      12.0903     -18.6770
      12.0925     -18.6744
      12.0947     -18.6718
      12.0968     -18.6624
      12.0990     -18.6597
      12.1011     -18.6570
      12.1033     -18.6544
      12.1055     -18.6518
      12.1076     -18.6407
      12.1098     -18.6381
      12.1120     -18.6355
      12.1142     -18.6329
      12.1164     -18.6303
      12.1185     -18.6277
      12.1207     -18.6171
      12.1228     -18.6145
      12.1250     -18.6120
      12.1272     -18.6094
      12.1294     -18.6069
      12.1315     -18.5968
      12.1337     -18.5942
      12.1359     -18.5917
      12.1380     -18.5891
      12.1402     -18.5865
      12.1423     -18.5747
      12.1446     -18.5722
      12.1467     -18.5696
      12.1489     -18.5670
      12.1510     -18.5644
      12.1532     -18.5619
      12.1554     -18.5510
      12.1576     -18.5483
      12.1598     -18.5458
      12.1619     -18.5431
      12.1641     -18.5406
      12.1663     -18.5382
      12.1684     -18.5280
      12.1706     -18.5255
      12.1728     -18.5230
      12.1750     -18.5205
      12.1771     -18.5178
      12.1793     -18.5059
      12.1815     -18.5033
      12.1836     -18.5008
      12.1858     -18.4984
      12.1880     -18.4959
      12.1902     -18.4932
      12.1924     -18.4820
      12.1944     -18.4794
      12.1966     -18.4769
      12.1989     -18.4745
      12.2010     -18.4720
      12.2031     -18.4621
      12.2054     -18.4595
      12.2075     -18.4569
      12.2097     -18.4544
      12.2119     -18.4520
      12.2140     -18.4398
      12.2162     -18.4372
      12.2183     -18.4346
      12.2206     -18.4322
      12.2227     -18.4297
      12.2249     -18.4273
      12.2271     -18.4157
      12.2293     -18.4132
      12.2314     -18.4107
      12.2336     -18.4083
      12.2357     -18.4056
      12.2379     -18.3956
      12.2401     -18.3930
      12.2423     -18.3903
      12.2445     -18.3877
      12.2466     -18.3784
      12.2488     -18.3758
